##YSI ASCII Datafile
#Source temp.dat
#InstrumentID 07E101066
#SystemSignature 870489733
#InstrumentType 600
#ProgramVer 306
#SiteName BAYT_CDT
#DateFormat YYYY MM DD HH mm ss
#StudyTime 2007 10 18 9 0 0
#FirstReadingTime 2007 10 18 9 0 33
#LoggingInterval 3600 Seconds
##Following Lines are in Tabular Format
#Channels 2 7 25 64 75 
#Sensors 1 4 22 211 28 
#ProbeTypes 0 0 0 0 0 
#ZeroScales 0 0 0 0 0 
#FullScales 0 0 0 0 0 
#ErrorFlag: NOERROR
#UserComments 
#ParameterNames Year Month Day Hour minute second Temperature Conductivity Depth DO+ Battery 
#ParameterUnits Year Month Day Hour minute second C mS/cm meters % volts 
2007 10 18 9 0 33 25.0793 -3.07336e-05 0.0103409 99.543 6.01562 
2007 10 18 10 0 33 24.2682 -3.07979e-05 0.0128145 101.188 6.01562 
2007 10 18 11 0 33 26.6101 8.34351 2.26776 75.0961 6.01562 
2007 10 18 12 0 33 26.6916 8.20215 2.22534 76.8166 6.01562 
2007 10 18 13 0 33 26.7438 8.01294 2.17529 81.4407 6.01562 
2007 10 18 14 0 33 26.7722 7.99768 2.11426 78.0754 6.01562 
2007 10 18 15 0 33 26.9891 7.82642 2.02789 76.6403 6.09375 
2007 10 18 16 0 33 27.0633 7.78284 1.96445 78.8811 6.01562 
2007 10 18 17 0 33 27.0807 7.6427 1.92883 78.7216 6.01562 
2007 10 18 18 0 33 27.3947 7.56262 1.89175 85.2592 6.01562 
2007 10 18 19 0 33 26.9608 7.38171 1.69519 78.2684 6.01562 
2007 10 18 20 0 33 27.3901 7.65247 1.81482 80.1819 6.01562 
2007 10 18 21 0 33 26.8994 7.21436 1.82367 75.3395 6.09375 
2007 10 18 22 0 33 26.7401 6.96875 1.85706 71.5126 6.01562 
2007 10 18 23 0 33 26.7172 7.3042 1.88492 70.2538 6.01562 
2007 10 19 0 0 33 26.7108 7.53296 1.97253 71.0091 6.01562 
2007 10 19 1 0 33 26.6211 8.62988 2.0332 66.3513 6.01562 
2007 10 19 2 0 33 26.7429 8.65161 2.13525 70.237 6.01562 
2007 10 19 3 0 33 26.3885 8.13599 2.20343 70.6734 6.01562 
2007 10 19 4 0 33 26.1807 7.81689 2.24597 69.2131 6.01562 
2007 10 19 5 0 33 26.2036 7.93225 2.27057 67.0563 6.01562 
2007 10 19 6 0 33 26.1844 7.71216 2.25153 59.3773 6.01562 
2007 10 19 7 0 33 26.1038 7.8562 2.24579 61.9118 6.01562 
2007 10 19 8 0 33 25.8557 7.65381 2.19568 65.8142 6.01562 
2007 10 19 9 0 33 25.7541 7.48926 2.16705 68.2648 6.01562 
2007 10 19 10 0 33 25.9848 7.10071 2.09387 65.2184 6.01562 
2007 10 19 11 0 33 26.0233 6.87463 2.10071 62.1384 6.01562 
2007 10 19 12 0 33 26.0205 6.83789 2.02948 63.3972 6.01562 
2007 10 19 13 0 33 26.1679 7.10645 2.06879 60.8963 6.01562 
2007 10 19 14 0 33 26.1917 7.57629 2.00623 72.5281 6.01562 
2007 10 19 15 0 33 26.1963 10.238 2.00684 67.8535 5.9375 
2007 10 19 16 0 33 26.2576 10.803 1.94452 67.1402 6.01562 
2007 10 19 17 0 33 26.3336 10.7527 1.89215 69.3474 6.01562 
2007 10 19 18 0 33 26.3135 11.5164 1.87015 64.4798 6.01562 
2007 10 19 19 0 33 26.2613 11.2844 1.86578 67.8032 6.01562 
2007 10 19 20 0 33 26.2558 11.9465 1.82935 65.8646 6.01562 
2007 10 19 21 0 33 26.1835 11.7856 1.85251 65.1428 6.01562 
2007 10 19 22 0 33 26.1981 13.3508 1.86319 64.8071 6.01562 
2007 10 19 23 0 33 26.1981 13.8557 1.93723 61.039 6.01562 
2007 10 20 0 0 33 26.1176 13.9341 1.94348 63.6909 6.01562 
2007 10 20 1 0 33 26.1505 15.7791 2.0423 61.5005 6.01562 
2007 10 20 2 0 33 26.0681 15.8464 2.11163 63.2378 6.01562 
2007 10 20 3 0 33 26.0434 16.5312 2.15881 65.2519 6.01562 
2007 10 20 4 0 33 26.0132 16.6938 2.21619 64.8659 6.01562 
2007 10 20 5 0 33 26.0269 16.2847 2.26306 63.3636 6.01562 
2007 10 20 6 0 33 26.0526 15.5315 2.28687 58.5716 6.01562 
2007 10 20 7 0 33 25.8466 15.3586 2.29266 63.372 6.01562 
2007 10 20 8 0 33 25.863 15.1213 2.31708 61.1061 6.01562 
2007 10 20 9 0 33 25.8438 15.1208 2.28625 59.0248 6.01562 
2007 10 20 10 0 33 25.8612 14.864 2.20325 59.6291 6.01562 
2007 10 20 11 0 33 25.6863 14.8989 2.22656 66.5863 6.01562 
2007 10 20 12 0 33 25.896 15.8167 2.211 65.9065 6.01562 
2007 10 20 13 0 33 26.0141 14.9265 2.20685 68.3319 5.9375 
2007 10 20 14 0 33 25.9885 17.106 2.12689 63.3804 6.01562 
2007 10 20 15 0 33 26.1267 16.7407 2.15265 69.5824 6.01562 
2007 10 20 16 0 33 26.1404 17.3511 2.0697 66.494 6.01562 
2007 10 20 17 0 33 26.1771 16.9048 2.02344 69.4061 6.01562 
2007 10 20 18 0 33 26.1349 16.5269 2.02563 71.5378 6.01562 
2007 10 20 19 0 33 26.0663 16.6719 1.97186 69.5068 5.9375 
2007 10 20 20 0 33 25.9061 16.2622 1.9151 75.1717 6.01562 
2007 10 20 21 0 33 26.0077 16.2568 1.90421 69.7502 6.01562 
2007 10 20 22 0 33 25.961 15.9316 1.87466 66.2003 5.9375 
2007 10 20 23 0 33 25.994 16.4893 1.90826 63.3888 6.01562 
2007 10 21 0 0 33 26.0452 17.0103 1.96024 61.7188 6.01562 
2007 10 21 1 0 33 25.9088 17.4067 2.01294 67.971 6.01562 
2007 10 21 2 0 33 25.7724 17.7095 2.07996 72.5449 6.01562 
2007 10 21 3 0 33 25.7257 17.9707 2.15527 67.7864 6.01562 
2007 10 21 4 0 33 25.7339 18.4004 2.24078 65.5121 6.01562 
2007 10 21 5 0 33 25.8136 19.0962 2.2851 62.5916 6.01562 
2007 10 21 6 0 33 25.7797 18.3735 2.31299 62.0041 6.01562 
2007 10 21 7 0 33 25.8292 18.6909 2.31049 61.5509 6.01562 
2007 10 21 8 0 33 25.5746 17.771 2.34149 65.5624 6.01562 
2007 10 21 9 0 33 25.5234 17.4897 2.33307 65.7639 6.01562 
2007 10 21 10 0 33 25.5124 17.3633 2.33655 66.5779 6.01562 
2007 10 21 11 0 33 25.5829 17.0024 2.30664 67.5766 5.9375 
2007 10 21 12 0 33 25.6644 17.3672 2.30261 68.9613 6.01562 
2007 10 21 13 0 33 25.7486 17.2603 2.31482 69.4565 5.9375 
2007 10 21 14 0 33 25.9134 16.9155 2.30627 72.8218 6.01562 
2007 10 21 15 0 33 25.8658 16.8296 2.289 73.9967 6.01562 
2007 10 21 16 0 33 25.8264 18.2275 2.27094 68.6676 6.01562 
2007 10 21 17 0 33 25.9125 17.4414 2.26953 75.65 6.01562 
2007 10 21 18 0 33 25.9473 17.3252 2.22772 80.1147 6.01562 
2007 10 21 19 0 33 25.8557 17.4209 2.15314 74.7604 5.9375 
2007 10 21 20 0 33 25.9042 16.8555 2.11072 75.1045 5.9375 
2007 10 21 21 0 33 25.8997 16.9634 2.02838 75.7675 5.9375 
2007 10 21 22 0 33 25.7623 16.4604 2.03998 72.419 6.01562 
2007 10 21 23 0 33 25.7687 16.3252 1.97787 69.2047 6.01562 
2007 10 22 0 0 33 25.7806 16.4307 1.93164 69.5068 5.9375 
2007 10 22 1 0 33 25.7971 16.4087 1.97318 67.9039 6.01562 
2007 10 22 2 0 33 25.7816 16.5947 2.04333 64.3204 5.9375 
2007 10 22 3 0 33 25.8109 17.4375 2.08887 63.8252 6.01562 
2007 10 22 4 0 33 25.831 18.7305 2.14758 63.9847 6.01562 
2007 10 22 5 0 33 25.6772 17.6743 2.2218 68.6592 6.01562 
2007 10 22 6 0 33 25.6973 18.3779 2.27228 64.9582 6.01562 
2007 10 22 7 0 33 25.6168 17.75 2.27539 67.5682 6.01562 
2007 10 22 8 0 33 25.5316 16.6587 2.27863 69.6243 6.01562 
2007 10 22 9 0 33 25.4749 16.0532 2.25372 65.6799 5.9375 
2007 10 22 10 0 33 25.5289 15.9846 2.224 64.0099 6.01562 
2007 10 22 11 0 33 25.3293 15.2107 2.20587 72.5281 6.01562 
2007 10 22 12 0 33 24.7058 13.8591 1.91818 79.1328 6.01562 
2007 10 22 13 0 33 24.2123 13.5161 1.79025 84.5207 6.01562 
2007 10 22 14 0 33 24.6646 15.0364 1.89157 77.8236 5.9375 
2007 10 22 15 0 33 24.357 14.512 1.84915 79.6364 5.9375 
2007 10 22 16 0 33 24.1299 14.1479 1.76834 83.1779 5.9375 
2007 10 22 17 0 33 23.6978 14.396 1.55264 86.7699 6.01562 
2007 10 22 18 0 33 22.3749 13.4729 1.6434 85.5949 5.9375 
2007 10 22 19 0 33 22.5854 13.3362 1.55646 84.3277 5.9375 
2007 10 22 20 0 33 21.6269 12.5044 1.5043 83.1528 5.9375 
2007 10 22 21 0 33 21.2643 11.9661 1.21097 84.034 5.9375 
2007 10 22 22 0 33 23.3737 13.3474 1.40219 78.0167 5.9375 
2007 10 22 23 0 33 23.5568 13.0623 1.15887 78.7216 5.9375 
2007 10 23 0 0 33 23.1458 12.6838 1.33331 77.6306 6.01562 
2007 10 23 1 0 33 23.1293 12.6086 1.25119 75.6332 5.9375 
2007 10 23 2 0 33 22.9068 12.4668 1.24054 74.6262 5.9375 
2007 10 23 3 0 33 23.056 12.1748 1.23029 71.8483 5.9375 
2007 10 23 4 0 33 22.8024 12.0129 1.27267 73.0064 5.9375 
2007 10 23 5 0 33 22.7393 11.8167 1.27719 72.0581 5.9375 
2007 10 23 6 0 33 22.6514 11.7422 1.30222 72.4106 5.9375 
2007 10 23 7 0 33 22.7072 11.7212 1.36905 72.2763 5.9375 
2007 10 23 8 0 33 22.0123 11.3215 1.33542 74.9535 5.9375 
2007 10 23 9 0 33 21.9244 11.6396 1.32809 74.8276 5.9375 
2007 10 23 10 0 33 21.55 11.4292 1.29251 77.8152 5.9375 
2007 10 23 11 0 33 21.6589 12.3662 1.27597 80.9959 5.9375 
2007 10 23 12 0 33 22.764 13.0559 1.20599 78.302 5.9375 
2007 10 23 13 0 33 22.8848 13.3672 1.15045 80.6183 5.9375 
2007 10 23 14 0 33 23.1549 13.6143 1.09695 80.9204 5.9375 
2007 10 23 15 0 33 23.035 13.6006 1.10626 79.3007 5.9375 
2007 10 23 16 0 33 22.9681 13.396 1.17102 77.8488 5.9375 
2007 10 23 17 0 33 22.6862 13.6135 1.19571 77.6222 6.01562 
2007 10 23 18 0 33 22.5909 13.9231 1.26703 77.7985 5.9375 
2007 10 23 19 0 33 22.4756 14.0002 1.31064 74.9199 5.9375 
2007 10 23 20 0 33 22.2028 14.4548 1.38538 74.0639 5.9375 
2007 10 23 21 0 33 22.1021 14.3535 1.49423 77.7397 5.9375 
2007 10 23 22 0 33 21.9739 14.4248 1.45352 74.1058 5.9375 
2007 10 23 23 0 33 21.8951 14.2637 1.45294 73.2414 5.9375 
2007 10 24 0 0 33 20.7965 12.9043 1.42078 70.8076 6.01562 
2007 10 24 1 0 33 21.2195 14.21 1.40793 72.7463 5.9375 
2007 10 24 2 0 33 21.1435 13.5525 1.39255 73.0316 5.9375 
2007 10 24 3 0 33 21.2195 13.4209 1.41583 74.1142 5.9375 
2007 10 24 4 0 34 21.8237 15.3501 1.44589 74.0807 5.9375 
2007 10 24 5 0 33 21.7834 16.5859 1.53033 72.8638 5.9375 
2007 10 24 6 0 33 21.7221 17.4854 1.58401 75.2892 5.85938 
2007 10 24 7 0 33 21.5967 17.5425 1.64951 74.836 5.9375 
2007 10 24 8 0 33 21.5353 17.6841 1.68637 73.9044 5.9375 
2007 10 24 9 0 33 20.7791 15.2515 1.68753 75.1717 5.9375 
2007 10 24 10 0 33 21.0693 15.3279 1.68118 75.3143 5.9375 
2007 10 24 11 0 33 20.8176 14.6831 1.62036 73.9967 5.9375 
2007 10 24 12 0 33 20.8533 14.6069 1.56189 73.0148 5.85938 
2007 10 24 13 0 33 20.5621 13.2268 1.48846 76.6655 5.9375 
2007 10 24 14 0 33 20.3726 12.6963 1.46783 82.7835 5.9375 
2007 10 24 15 0 33 20.4953 12.8101 1.42664 87.4664 5.9375 
2007 10 24 16 0 33 22.0416 16.1714 1.41376 82.045 5.9375 
2007 10 24 17 0 33 22.0123 15.6731 1.47931 77.5215 5.9375 
2007 10 24 18 0 33 21.8613 15.6509 1.55814 77.7817 5.9375 
2007 10 24 19 0 33 21.5765 16.2847 1.63501 77.2865 5.9375 
2007 10 24 20 0 33 21.3275 16.6904 1.72601 74.3828 5.9375 
2007 10 24 21 0 33 21.3312 16.3818 1.75439 75.0961 5.9375 
2007 10 24 22 0 33 21.3138 16.4253 1.77756 75.2472 5.9375 
2007 10 24 23 0 33 21.0574 15.8472 1.70691 73.5855 5.9375 
2007 10 25 0 0 33 21.0098 16.7915 1.65048 75.1549 5.9375 
2007 10 25 1 0 33 20.8524 15.2998 1.59259 72.8722 5.9375 
2007 10 25 2 0 33 20.6592 14.6338 1.53256 73.9212 5.85938 
2007 10 25 3 0 33 20.6326 14.6218 1.49435 71.5462 5.85938 
2007 10 25 4 0 33 20.8881 16.3198 1.54474 72.2343 5.85938 
2007 10 25 5 0 33 21.0199 16.9429 1.5903 71.2524 5.9375 
2007 10 25 6 0 33 21.1801 17.2168 1.65082 68.8942 5.85938 
2007 10 25 7 0 33 20.8075 17.3535 1.70862 70.665 5.9375 
2007 10 25 8 0 33 20.2957 16.8354 1.75824 71.3028 5.9375 
2007 10 25 9 0 33 20.2399 16.7197 1.427 74.2401 5.85938 
2007 10 25 10 0 33 18.6606 14.7551 1.67776 71.7644 5.85938 
2007 10 25 11 0 33 20.6381 18.0654 1.66553 71.9322 5.9375 
2007 10 25 12 0 33 19.9945 16.876 1.60028 71.9742 5.85938 
2007 10 25 13 0 33 19.8233 15.4268 1.5239 74.2569 5.85938 
2007 10 25 14 0 33 19.9442 15.0415 1.46973 73.703 5.9375 
2007 10 25 15 0 33 20.7315 16.0864 1.46295 78.9986 5.9375 
2007 10 25 16 0 33 21.3065 17.0835 1.49835 75.7088 5.9375 
2007 10 25 17 0 33 21.4383 17.8325 1.57968 70.9503 5.85938 
2007 10 25 18 0 33 21.3696 21.127 1.64981 69.6411 5.9375 
2007 10 25 19 0 33 21.2003 22.3457 1.77634 74.5087 5.9375 
2007 10 25 20 0 33 21.106 23.374 1.88684 74.8947 5.85938 
2007 10 25 21 0 33 20.9943 22.9854 1.92923 75.3983 5.9375 
2007 10 25 22 0 33 21.0419 23.3833 1.9744 76.9257 5.85938 
2007 10 25 23 0 33 20.7819 20.0825 1.96289 73.2666 5.85938 
2007 10 26 0 0 33 20.997 20.9292 1.96307 71.4287 5.9375 
2007 10 26 1 0 33 20.7343 19.6533 1.93851 74.0807 5.9375 
2007 10 26 2 0 33 20.271 17.958 1.92969 73.3505 5.9375 
2007 10 26 3 0 33 20.5136 19.2422 1.78799 76.4725 5.85938 
2007 10 26 4 0 33 20.6363 19.812 1.888 73.4512 5.85938 
2007 10 26 5 0 33 20.7278 19.9316 1.89011 71.328 5.9375 
2007 10 26 6 0 33 20.7104 19.4736 1.90964 71.2105 5.85938 
2007 10 26 7 0 33 20.6683 19.3252 1.92538 70.4216 5.85938 
2007 10 26 8 0 33 20.4834 18.9834 1.94144 70.0607 5.85938 
2007 10 26 9 0 33 20.5209 18.8687 1.86621 66.7374 5.85938 
2007 10 26 10 0 33 20.672 19.7891 1.83029 72.2008 5.85938 
2007 10 26 11 0 33 20.4852 18.7158 1.74963 69.2719 5.85938 
2007 10 26 12 0 33 20.4175 17.6514 1.6633 64.3036 5.85938 
2007 10 26 13 0 33 20.2344 17.7222 1.58188 62.986 5.85938 
2007 10 26 14 0 33 20.77 17.4023 1.56476 71.3867 5.9375 
2007 10 26 15 0 33 21.3852 18.7729 1.50394 69.9684 5.85938 
2007 10 26 16 0 33 21.4868 18.9194 1.52591 75.2724 5.85938 
2007 10 26 17 0 33 21.4703 19.3154 1.54926 68.3151 5.85938 
2007 10 26 18 0 33 21.3348 20.4355 1.68719 73.04 5.85938 
2007 10 26 19 0 33 21.2204 21.9287 1.81042 71.907 5.85938 
2007 10 26 20 0 33 21.1536 22.2651 1.89462 71.4287 5.85938 
2007 10 26 21 0 33 21.1096 22.6802 1.9881 67.9878 5.85938 
2007 10 26 22 0 33 21.1472 22.9829 2.06122 66.4185 5.85938 
2007 10 26 23 0 33 20.9366 22.9258 2.09741 72.2176 5.85938 
2007 10 27 0 0 33 20.8597 21.5698 2.08801 69.6579 5.9375 
2007 10 27 1 0 33 20.8139 20.4512 2.02686 68.9781 5.85938 
2007 10 27 2 0 33 20.7095 20.6304 2.08844 66.9724 5.9375 
2007 10 27 3 0 33 20.6638 20.9282 2.03906 71.0007 5.85938 
2007 10 27 4 0 33 20.4303 20.6313 2.01819 72.2511 5.85938 
2007 10 27 5 0 33 20.3799 20.2285 1.99585 69.7418 5.9375 
2007 10 27 6 0 33 20.5264 19.3975 1.98306 70.6314 5.85938 
2007 10 27 7 0 33 20.2225 18.4102 1.96814 65.3191 5.85938 
2007 10 27 8 0 33 20.2115 19.0918 1.94501 68.9613 5.85938 
2007 10 27 9 0 33 20.3717 18.6562 1.90237 62.9692 5.85938 
2007 10 27 10 0 33 20.0696 18.4927 1.91782 61.6768 5.85938 
2007 10 27 11 0 33 20.054 18.439 1.80112 63.9091 5.85938 
2007 10 27 12 0 33 20.1611 18.6743 1.7211 66.5024 5.85938 
2007 10 27 13 0 33 20.5429 18.8267 1.61975 66.5443 5.85938 
2007 10 27 14 0 33 20.6107 18.8862 1.55731 75.1549 5.85938 
2007 10 27 15 0 33 20.9521 19.231 1.53296 69.2802 5.85938 
2007 10 27 16 0 33 20.8606 19.3545 1.51248 71.8315 5.85938 
2007 10 27 17 0 33 21.0254 19.3628 1.5585 72.2176 5.85938 
2007 10 27 18 0 33 21.095 19.4209 1.64807 70.472 5.85938 
2007 10 27 19 0 33 21.0464 20.7671 1.72021 68.3739 5.85938 
2007 10 27 20 0 33 20.9961 21.9868 1.83371 73.2918 5.85938 
2007 10 27 21 0 33 20.8322 23.0098 1.94556 75.1129 5.85938 
2007 10 27 22 0 33 20.8121 23.3911 2.05054 72.6875 5.85938 
2007 10 27 23 0 33 20.8725 24.0591 2.15375 74.987 5.85938 
2007 10 28 0 0 33 20.7938 23.8843 2.14075 70.153 5.85938 
2007 10 28 1 0 33 20.239 22.9893 2.2251 74.1058 5.85938 
2007 10 28 2 0 33 20.2811 22.4551 2.22046 74.5338 5.85938 
2007 10 28 3 0 33 20.1685 22.0488 2.16785 74.5087 5.85938 
2007 10 28 4 0 33 20.0897 21.7227 2.18683 73.8289 5.85938 
2007 10 28 5 0 33 20.1062 22.6743 2.1521 73.1827 5.85938 
2007 10 28 6 0 33 20.0906 22.6665 2.14502 69.4817 5.85938 
2007 10 28 7 0 33 19.8288 20.9331 2.14551 72.5449 5.85938 
2007 10 28 8 0 33 19.675 21.6377 2.13745 75.1717 5.85938 
2007 10 28 9 0 33 19.5944 21.3911 2.10895 74.2401 5.85938 
2007 10 28 10 0 33 19.5367 20.6235 2.08173 72.4693 5.85938 
2007 10 28 11 0 33 19.5331 20.3115 2.01178 67.5766 5.85938 
2007 10 28 12 0 33 19.7363 20.6938 1.96127 80.7861 5.85938 
2007 10 28 13 0 33 19.9432 20.438 1.87064 79.3678 5.85938 
2007 10 28 14 0 33 20.0705 20.0322 1.7728 79.4098 5.85938 
2007 10 28 15 0 33 20.5182 20.1562 1.68994 79.8965 5.85938 
2007 10 28 16 0 33 20.7196 19.981 1.6398 93.1396 5.85938 
2007 10 28 17 0 33 20.834 20.0425 1.62259 84.7389 5.85938 
2007 10 28 18 0 33 20.9174 20.188 1.67969 85.3264 5.85938 
2007 10 28 19 0 33 20.8514 20.5239 1.72113 76.8585 5.78125 
2007 10 28 20 0 33 20.7095 22.8872 1.84879 77.5299 5.85938 
2007 10 28 21 0 33 20.5869 23.4341 1.94046 79.0741 5.85938 
2007 10 28 22 0 33 20.6052 23.8667 2.05658 75.2052 5.85938 
2007 10 28 23 0 33 20.618 25.1719 2.12695 78.1258 5.78125 
2007 10 29 0 0 33 20.4248 25.1748 2.20984 75.5913 5.85938 
2007 10 29 1 0 33 20.0082 24.5996 2.22882 72.7043 5.85938 
2007 10 29 2 0 33 19.9149 23.8491 2.23761 77.6222 5.78125 
2007 10 29 3 0 33 20.0467 23.4473 2.2431 77.6306 5.85938 
2007 10 29 4 0 33 20.0247 23.374 2.20709 75.7004 5.85938 
2007 10 29 5 0 33 19.8874 23.7705 2.20001 79.3678 5.78125 
2007 10 29 6 0 33 19.7638 22.9648 2.18915 80.2238 5.85938 
2007 10 29 7 0 34 19.6082 22.7124 2.16833 78.5873 5.85938 
2007 10 29 8 0 33 19.4516 22.3579 2.23212 78.7971 5.85938 
2007 10 29 9 0 33 19.306 22.002 2.17157 80.4672 5.85938 
2007 10 29 10 0 33 19.1229 21.6479 2.15399 79.1161 5.78125 
2007 10 29 11 0 33 19.1101 21.5977 2.125 71.0342 5.85938 
2007 10 29 12 0 33 19.23 21.522 2.04468 73.6526 5.85938 
2007 10 29 13 0 33 19.5935 21.3726 1.94791 78.2349 5.85938 
2007 10 29 14 0 33 19.8938 21.1909 1.88028 77.5383 5.85938 
2007 10 29 15 0 33 20.4651 21.0195 1.8472 86.6272 5.78125 
2007 10 29 16 0 33 20.4706 21.0015 1.70895 76.2878 5.85938 
2007 10 29 17 0 33 20.8524 21.2324 1.66553 82.859 5.78125 
2007 10 29 18 0 33 20.8835 21.374 1.65765 81.4743 5.78125 
2007 10 29 19 0 33 20.7855 21.439 1.70279 82.2716 5.78125 
2007 10 29 20 0 33 20.8112 22.604 1.7652 73.9799 5.85938 
2007 10 29 21 0 33 20.6583 23.7412 1.8931 76.2543 5.85938 
2007 10 29 22 0 33 20.5814 24.8999 1.97931 78.9398 5.85938 
2007 10 29 23 0 33 20.4898 25.7734 2.09186 80.2322 5.85938 
2007 10 30 0 0 33 20.4404 26.2573 2.14276 79.1664 5.78125 
2007 10 30 1 0 33 20.4523 26.4712 2.22754 78.4615 5.78125 
2007 10 30 2 0 33 20.3909 26.4497 2.26556 73.7785 5.85938 
2007 10 30 3 0 33 19.9716 25.7666 2.18207 70.9503 5.78125 
2007 10 30 4 0 33 20.2078 25.877 2.32489 72.3854 5.85938 
2007 10 30 5 0 33 20.1346 25.8481 2.32196 73.1155 5.78125 
2007 10 30 6 0 33 19.9277 25.3311 2.34778 76.6319 5.85938 
2007 10 30 7 0 33 19.8297 25.0459 2.33972 76.0277 5.85938 
2007 10 30 8 0 33 19.805 25.1304 2.34515 75.6584 5.78125 
2007 10 30 9 0 33 19.6805 24.8809 2.34235 78.2516 5.85938 
2007 10 30 10 0 33 19.4983 23.7212 2.29053 80.9204 5.85938 
2007 10 30 11 0 33 19.7702 23.6577 2.13269 81.2393 5.78125 
2007 10 30 12 0 33 19.9625 23.9775 2.20154 79.1748 5.85938 
2007 10 30 13 0 33 19.8956 23.2314 2.16058 82.2968 5.78125 
2007 10 30 14 0 33 20.1328 23.7368 2.05237 83.6479 5.78125 
2007 10 30 15 0 33 20.2609 23.0264 1.95734 87.3154 5.85938 
2007 10 30 16 0 33 20.5273 23.9307 1.87473 81.2813 5.78125 
2007 10 30 17 0 33 20.6729 23.8813 1.79694 79.007 5.78125 
2007 10 30 18 0 33 20.7443 23.8945 1.74979 79.8546 5.78125 
2007 10 30 19 0 33 21.0931 24.0742 1.78564 81.6338 5.78125 
2007 10 30 20 0 33 21.0602 24.1445 1.78455 79.9301 5.78125 
2007 10 30 21 0 33 20.9906 24.2231 1.84338 79.1412 5.85938 
2007 10 30 22 0 33 20.7928 24.4761 1.92752 74.1142 5.85938 
2007 10 30 23 0 33 20.7233 24.9927 2.01788 82.8926 5.78125 
2007 10 31 0 0 33 20.6125 25.5718 2.08728 88.0203 5.78125 
2007 10 31 1 0 33 20.5493 26.1504 2.16742 81.2309 5.85938 
2007 10 31 2 0 33 20.4962 26.4546 2.21497 81.4743 5.78125 
2007 10 31 3 0 33 20.4953 26.5146 2.28839 73.703 5.78125 
2007 10 31 4 0 33 20.5695 26.7324 2.25354 75.8347 5.85938 
2007 10 31 5 0 33 20.4935 26.5215 2.30896 71.8735 5.85938 
2007 10 31 6 0 33 20.4733 26.3926 2.33215 60.804 5.78125 
2007 10 31 7 0 33 20.3259 26.1421 2.32916 68.0634 5.78125 
2007 10 31 8 0 33 20.3561 25.4429 2.33459 72.5197 5.78125 
2007 10 31 9 0 33 20.4047 25.335 2.32886 72.9393 5.78125 
2007 10 31 10 0 33 20.3397 24.7837 2.29858 80.291 5.78125 
2007 10 31 11 0 33 20.4944 25.0288 2.27032 84.0759 5.85938 
2007 10 31 12 0 33 20.748 24.5229 2.23132 97.8477 5.78125 
2007 10 31 13 0 33 21.3495 23.9927 2.16046 93.8698 5.78125 
2007 10 31 14 0 33 21.0208 23.8218 2.10931 77.7985 5.78125 
2007 10 31 15 0 33 21.1215 23.6934 2.02435 85.5026 5.85938 
2007 10 31 16 0 33 21.1279 24.5098 1.96301 87.9448 5.78125 
2007 10 31 17 0 33 21.2241 24.9849 1.87723 81.9695 5.78125 
2007 10 31 18 0 33 21.2817 25.1963 1.86084 82.2212 5.78125 
